#
# SDSS i filter - Y4KCam Filter Set
# Factory Raw Transmission Curve
# 2006 Feb 22 [rwp/osu]
#
#lam[nm] Tx     
670     0.000   
671     0.000   
672     0.000   
673     0.001   
674     0.002   
675     0.005   
676     0.008   
677     0.012   
678     0.019   
679     0.029   
680     0.043   
681     0.060   
682     0.081   
683     0.110   
684     0.146   
685     0.180   
686     0.213   
687     0.254   
688     0.301   
689     0.344   
690     0.382   
691     0.417   
692     0.456   
693     0.501   
694     0.542   
695     0.575   
696     0.612   
697     0.656   
698     0.690   
699     0.711   
700     0.729   
701     0.748   
702     0.767   
703     0.786   
704     0.802   
705     0.816   
706     0.829   
707     0.841   
708     0.851   
709     0.860   
710     0.871   
711     0.881   
712     0.889   
713     0.896   
714     0.903   
715     0.909   
716     0.915   
717     0.920   
718     0.924   
719     0.927   
720     0.930   
721     0.932   
722     0.934   
723     0.935   
724     0.937   
725     0.938   
726     0.940   
727     0.942   
728     0.945   
729     0.947   
730     0.949   
731     0.950   
732     0.951   
733     0.953   
734     0.955   
735     0.956   
736     0.958   
737     0.958   
738     0.959   
739     0.958   
740     0.957   
741     0.956   
742     0.955   
743     0.955   
744     0.955   
745     0.955   
746     0.955   
747     0.955   
748     0.955   
749     0.956   
750     0.958   
751     0.959   
752     0.960   
753     0.962   
754     0.963   
755     0.964   
756     0.965   
757     0.966   
758     0.966   
759     0.967   
760     0.967   
761     0.968   
762     0.968   
763     0.968   
764     0.967   
765     0.966   
766     0.966   
767     0.966   
768     0.966   
769     0.967   
770     0.967   
771     0.966   
772     0.966   
773     0.965   
774     0.964   
775     0.965   
776     0.965   
777     0.964   
778     0.963   
779     0.962   
780     0.960   
781     0.959   
782     0.959   
783     0.959   
784     0.960   
785     0.961   
786     0.960   
787     0.960   
788     0.959   
789     0.959   
790     0.960   
791     0.962   
792     0.964   
793     0.965   
794     0.966   
795     0.966   
796     0.966   
797     0.966   
798     0.966   
799     0.967   
800     0.967   
801     0.967   
802     0.967   
803     0.967   
804     0.967   
805     0.967   
806     0.967   
807     0.967   
808     0.967   
809     0.967   
810     0.968   
811     0.968   
812     0.969   
813     0.970   
814     0.970   
815     0.970   
816     0.970   
817     0.970   
818     0.970   
819     0.970   
820     0.970   
821     0.970   
822     0.969   
823     0.969   
824     0.968   
825     0.966   
826     0.965   
827     0.963   
828     0.961   
829     0.958   
830     0.955   
831     0.951   
832     0.948   
833     0.947   
834     0.950   
835     0.954   
836     0.958   
837     0.961   
838     0.961   
839     0.937   
840     0.870   
841     0.763   
842     0.626   
843     0.474   
844     0.327   
845     0.214   
846     0.139   
847     0.089   
848     0.057   
849     0.038   
850     0.027   
851     0.020   
852     0.016   
853     0.012   
854     0.009   
855     0.006   
856     0.004   
857     0.001   
858     0.000

